Final E0	0.418477Total Alkalinity	2351.57Salinity	35.000Sample Size	140.570	gsample temp	22Electrode ID	00000000HCl Information	01JAN14 [00]HCl Concentration	0.094400Density Func.	-0.00000380*x^2-0.0001210*x+1.02902HCl Temp (Uncorr)	24.61HCl T Corr. Func.	x*1Dosimat Corr. Function	1.00000*x-0.00001*x^2Date and Time	27Jul19 15:09:46Cell Temp Mean (Uncorr)	26.821Cell Temp Std Dev	0.020Cell T Corr. Func.	x*1First point	4.000000Last point	23.000000mse	0.0000000077Flag	RejectTotal HCl (mL) (Uncorr)	EMF (V)	EMF std dev	pH	Point3.728500	0.198636	0.000004	3.693512	0.000000
3.778500	0.202485	0.000004	3.628834	1.000000
3.828500	0.205820	0.000004	3.572801	2.000000
3.878500	0.208779	0.000004	3.523086	3.000000
3.928500	0.211482	0.000004	3.477685	4.000000
3.978500	0.213902	0.000005	3.437015	5.000000
4.028500	0.216142	0.000004	3.399394	6.000000
4.078500	0.218180	0.000005	3.365144	7.000000
4.128500	0.220059	0.000003	3.333574	8.000000
4.178500	0.221844	0.000004	3.303583	9.000000
4.228500	0.223499	0.000003	3.275786	10.000000
4.278500	0.225067	0.000003	3.249448	11.000000
4.328500	0.226535	0.000006	3.224777	12.000000
4.378500	0.227908	0.000005	3.201708	13.000000
4.428500	0.229238	0.000004	3.179372	14.000000
4.478500	0.230483	0.000006	3.158443	15.000000
4.528500	0.231692	0.000005	3.138134	16.000000
4.578500	0.232840	0.000006	3.118856	17.000000
4.628500	0.233923	0.000003	3.100655	18.000000
4.678500	0.234985	0.000005	3.082813	19.000000
4.728500	0.235990	0.000004	3.065932	20.000000
4.778500	0.236973	0.000003	3.049410	21.000000
4.828500	0.237907	0.000004	3.033712	22.000000
4.878500	0.238803	0.000003	3.018670	23.000000
